Time (hrs),Light Intensity (lux)
0,0
1,100
2,700
3,8466
4,203
5,3207
6,9022
7,3394
8,206
9,6386
10,2991
11,5794
12,9360
13,7271
14,9530
15,4275
16,4669
17,9694
18,8939
19,5281
20,9635
21,5360
22,1967
23,2992
24,4756